CV MEASUREMENT
:start
2012-08-08 14:14:57
:stop
2012-08-08 14:20:11
:device
MCZ200Y_05_DiodeL_9
:tester
coralie
:atmosphere
Air
:environment
Probe Station
:Instruments
VI Kei6517A,CV AgE4980A,GI Kei6485,T ATTcontroller
:Comment
cold1, irr 3E13p/cm² (KA), 20°C
Annealing time [min]:
0@0
:temperature [C]
19.998551
:start,stop voltage [V] & number of points
0.000000,500.000000,69
:Voltage increment and increment speed
2.000000,0.300000
:polarity and ramp mode
positive,0
:List of frequencies
10 kHz,1 kHz,
:AC level
0.500000
:Average
5
:Delay
0.000000
:legend
bias [V],T[C],C[F],G[S]
BEGIN
0.000000E+0	2.000000E+1	9.742320E-11	-5.744580E-11	3.509880E-5	3.830110E-5
1.000000E+0	2.000000E+1	1.031210E-10	1.566930E-10	2.866220E-6	6.326800E-7
2.000000E+0	2.000000E+1	7.400850E-11	9.884290E-11	1.364660E-6	4.271800E-7
3.000000E+0	2.000000E+1	6.323830E-11	8.124820E-11	1.028470E-6	3.447360E-7
4.000000E+0	2.000000E+1	5.627110E-11	7.078100E-11	8.458640E-7	2.976730E-7
5.000000E+0	2.000000E+1	5.122170E-11	6.353590E-11	7.264720E-7	2.651970E-7
6.000000E+0	2.000000E+1	4.733820E-11	5.814380E-11	6.417680E-7	2.413470E-7
7.000000E+0	2.000000E+1	4.425590E-11	5.396600E-11	5.788240E-7	2.233310E-7
8.000000E+0	2.000000E+1	4.171300E-11	5.058020E-11	5.295210E-7	2.087070E-7
9.000000E+0	2.000000E+1	3.957090E-11	4.776740E-11	4.898240E-7	1.966970E-7
1.000000E+1	2.000000E+1	3.772500E-11	4.536760E-11	4.567600E-7	1.864940E-7
1.500000E+1	2.000000E+1	3.122220E-11	3.700620E-11	3.452820E-7	1.503050E-7
2.000000E+1	2.000000E+1	2.723790E-11	3.197250E-11	2.827210E-7	1.287450E-7
2.500000E+1	2.000000E+1	2.446570E-11	2.848780E-11	2.409030E-7	1.135280E-7
3.000000E+1	2.000000E+1	2.238670E-11	2.586950E-11	2.101030E-7	1.017870E-7
3.500000E+1	2.000000E+1	2.074590E-11	2.379250E-11	1.856040E-7	9.212590E-8
4.000000E+1	2.000000E+1	1.940620E-11	2.208360E-11	1.654560E-7	8.401090E-8
4.500000E+1	2.000000E+1	1.827190E-11	2.061130E-11	1.473800E-7	7.646240E-8
5.000000E+1	2.000000E+1	1.728860E-11	1.931320E-11	1.309750E-7	6.958790E-8
5.500000E+1	2.000000E+1	1.641490E-11	1.812000E-11	1.150650E-7	6.290590E-8
6.000000E+1	1.990000E+1	1.562280E-11	1.700460E-11	9.922380E-8	5.647540E-8
6.500000E+1	2.000000E+1	1.489240E-11	1.592320E-11	8.233410E-8	4.988680E-8
7.000000E+1	2.000000E+1	1.422840E-11	1.487880E-11	6.449620E-8	4.322820E-8
7.500000E+1	2.000000E+1	1.366480E-11	1.390870E-11	4.667000E-8	3.678610E-8
8.000000E+1	2.000000E+1	1.325140E-11	1.306570E-11	3.005470E-8	3.017980E-8
8.500000E+1	2.000000E+1	1.303120E-11	1.243660E-11	1.595640E-8	2.230950E-8
9.000000E+1	2.000000E+1	1.297220E-11	1.220010E-11	7.151560E-9	1.400900E-8
9.500000E+1	2.000000E+1	1.296870E-11	1.223940E-11	3.368110E-9	8.494360E-9
1.000000E+2	2.000000E+1	1.297430E-11	1.231320E-11	2.157040E-9	5.810190E-9
1.100000E+2	2.000000E+1	1.297540E-11	1.237950E-11	9.043070E-10	3.660750E-9
1.200000E+2	2.000000E+1	1.297580E-11	1.240300E-11	3.701620E-10	2.890800E-9
1.300000E+2	2.000000E+1	1.297830E-11	1.242260E-11	4.577350E-10	2.492460E-9
1.400000E+2	2.000000E+1	1.297950E-11	1.242610E-11	2.773330E-10	2.274030E-9
1.500000E+2	2.000000E+1	1.298070E-11	1.242960E-11	1.485030E-10	2.133070E-9
1.600000E+2	2.000000E+1	1.298240E-11	1.243220E-11	8.229460E-11	2.041880E-9
1.700000E+2	2.000000E+1	1.298420E-11	1.243300E-11	5.153650E-11	1.984120E-9
1.800000E+2	2.000000E+1	1.298610E-11	1.243330E-11	4.085270E-11	1.935390E-9
1.900000E+2	2.000000E+1	1.298790E-11	1.243440E-11	6.813310E-11	1.907030E-9
2.000000E+2	2.000000E+1	1.298970E-11	1.243600E-11	1.104510E-10	1.862570E-9
2.100000E+2	2.000000E+1	1.299160E-11	1.243640E-11	1.461340E-10	1.866340E-9
2.200000E+2	2.000000E+1	1.299310E-11	1.243930E-11	2.199190E-10	1.859360E-9
2.300000E+2	2.000000E+1	1.299480E-11	1.244120E-11	2.986440E-10	1.867470E-9
2.400000E+2	2.000000E+1	1.299640E-11	1.244060E-11	3.811850E-10	1.872310E-9
2.500000E+2	2.000000E+1	1.299760E-11	1.244240E-11	4.659870E-10	1.860690E-9
2.600000E+2	2.000000E+1	1.299870E-11	1.244490E-11	5.679770E-10	1.885740E-9
2.700000E+2	2.000000E+1	1.300000E-11	1.244540E-11	6.657420E-10	1.886710E-9
2.800000E+2	2.000000E+1	1.300060E-11	1.244520E-11	7.410440E-10	1.891240E-9
2.900000E+2	2.000000E+1	1.300160E-11	1.244620E-11	8.404320E-10	1.894760E-9
3.000000E+2	2.000000E+1	1.300190E-11	1.244890E-11	9.377280E-10	1.915420E-9
3.100000E+2	2.000000E+1	1.300260E-11	1.245110E-11	1.017500E-9	1.924210E-9
3.200000E+2	2.000000E+1	1.300280E-11	1.245460E-11	1.087490E-9	1.930610E-9
3.300000E+2	2.000000E+1	1.300340E-11	1.245350E-11	1.168920E-9	1.949060E-9
3.400000E+2	2.000000E+1	1.300360E-11	1.245750E-11	1.245600E-9	1.955380E-9
3.500000E+2	2.000000E+1	1.300340E-11	1.245520E-11	1.303110E-9	1.952780E-9
3.600000E+2	2.000000E+1	1.300360E-11	1.245680E-11	1.367230E-9	1.962260E-9
3.700000E+2	2.000000E+1	1.300330E-11	1.246070E-11	1.445940E-9	1.980600E-9
3.800000E+2	2.000000E+1	1.300360E-11	1.246220E-11	1.509020E-9	1.990180E-9
3.900000E+2	2.000000E+1	1.300300E-11	1.246460E-11	1.537810E-9	1.998480E-9
4.000000E+2	2.000000E+1	1.300280E-11	1.246160E-11	1.603330E-9	2.021340E-9
4.100000E+2	2.000000E+1	1.300340E-11	1.246690E-11	1.630840E-9	2.020120E-9
4.200000E+2	2.000000E+1	1.300280E-11	1.246920E-11	1.668690E-9	2.040000E-9
4.300000E+2	2.000000E+1	1.300250E-11	1.246660E-11	1.701160E-9	2.046900E-9
4.400000E+2	2.000000E+1	1.300250E-11	1.247010E-11	1.717620E-9	2.044070E-9
4.500000E+2	2.000000E+1	1.300230E-11	1.247150E-11	1.743970E-9	2.069080E-9
4.600000E+2	2.000000E+1	1.300230E-11	1.247310E-11	1.776030E-9	2.078250E-9
4.700000E+2	2.000000E+1	1.300230E-11	1.247390E-11	1.807550E-9	2.080470E-9
4.800000E+2	2.000000E+1	1.300160E-11	1.247510E-11	1.816270E-9	2.092740E-9
4.900000E+2	2.000000E+1	1.300190E-11	1.247830E-11	1.821030E-9	2.094120E-9
5.000000E+2	2.000000E+1	1.300190E-11	1.247650E-11	1.848690E-9	2.113350E-9
END