CV MEASUREMENT
:start
2012-08-09 12:58:24
:stop
2012-08-09 13:05:05
:device
MCZ200Y_06_DiodeL_11
:tester
coralie
:atmosphere
Air
:environment
Probe Station
:Instruments
VI Kei6517A,CV AgE4980A,GI Kei6485,T ATTcontroller
:Comment
cold2, irr 5E13p/cm² (KA), 20°C
Annealing time [min]:
0@0
:temperature [C]
20.000000
:start,stop voltage [V] & number of points
0.000000,700.000000,89
:Voltage increment and increment speed
2.000000,0.300000
:polarity and ramp mode
positive,0
:List of frequencies
1 kHz,10 kHz,
:AC level
0.500000
:Average
5
:Delay
0.000000
:legend
bias [V],T[C],C[F],G[S]
BEGIN
0.000000E+0	2.000000E+1	8.852410E-11	8.099210E-11	2.144280E-5	2.312150E-5
1.000000E+0	2.000000E+1	1.814040E-10	1.021210E-10	9.936310E-7	3.854170E-6
2.000000E+0	2.000000E+1	1.233520E-10	8.086470E-11	6.784800E-7	2.289560E-6
3.000000E+0	2.000000E+1	1.023400E-10	7.023180E-11	5.523110E-7	1.775860E-6
4.000000E+0	2.000000E+1	8.955920E-11	6.303220E-11	4.779370E-7	1.480690E-6
5.000000E+0	2.000000E+1	8.069950E-11	5.771630E-11	4.273650E-7	1.284970E-6
6.000000E+0	2.000000E+1	7.409700E-11	5.358320E-11	3.902140E-7	1.144610E-6
7.000000E+0	2.000000E+1	6.892410E-11	5.024060E-11	3.614250E-7	1.038200E-6
8.000000E+0	2.000000E+1	6.475210E-11	4.747940E-11	3.383830E-7	9.548780E-7
9.000000E+0	2.000000E+1	6.128140E-11	4.513850E-11	3.192270E-7	8.872600E-7
1.000000E+1	2.000000E+1	5.832920E-11	4.312160E-11	3.030520E-7	8.311430E-7
1.500000E+1	2.000000E+1	4.794540E-11	3.591010E-11	2.455920E-7	6.410580E-7
2.000000E+1	2.000000E+1	4.162700E-11	3.142570E-11	2.105440E-7	5.326100E-7
2.500000E+1	2.000000E+1	3.718390E-11	2.825760E-11	1.854350E-7	4.589530E-7
3.000000E+1	2.000000E+1	3.375920E-11	2.583680E-11	1.655660E-7	4.031700E-7
3.500000E+1	2.000000E+1	3.097340E-11	2.388890E-11	1.488820E-7	3.578130E-7
4.000000E+1	2.000000E+1	2.859260E-11	2.225630E-11	1.342010E-7	3.189330E-7
4.500000E+1	2.000000E+1	2.648860E-11	2.083850E-11	1.208010E-7	2.840100E-7
5.000000E+1	2.000000E+1	2.456690E-11	1.957430E-11	1.082540E-7	2.516440E-7
5.500000E+1	2.000000E+1	2.278310E-11	1.842330E-11	9.641500E-8	2.209520E-7
6.000000E+1	2.000000E+1	2.110180E-11	1.735580E-11	8.522340E-8	1.914120E-7
6.500000E+1	2.000000E+1	1.950740E-11	1.635470E-11	7.468570E-8	1.624240E-7
7.000000E+1	2.000000E+1	1.800130E-11	1.541960E-11	6.492740E-8	1.334540E-7
7.500000E+1	2.000000E+1	1.657890E-11	1.457030E-11	5.601980E-8	1.038810E-7
8.000000E+1	2.000000E+1	1.526990E-11	1.386210E-11	4.778850E-8	7.444760E-8
8.500000E+1	2.000000E+1	1.412500E-11	1.335670E-11	3.987510E-8	4.769230E-8
9.000000E+1	2.000000E+1	1.325360E-11	1.307390E-11	3.176980E-8	2.701540E-8
9.500000E+1	2.000000E+1	1.276650E-11	1.296200E-11	2.346350E-8	1.370840E-8
1.000000E+2	2.000000E+1	1.262910E-11	1.293630E-11	1.652820E-8	6.820400E-9
1.100000E+2	2.000000E+1	1.268570E-11	1.293030E-11	9.125380E-9	1.071780E-9
1.200000E+2	2.000000E+1	1.273580E-11	1.292900E-11	6.396150E-9	-9.249740E-10
1.300000E+2	2.000000E+1	1.276390E-11	1.292810E-11	5.124510E-9	-1.910750E-9
1.400000E+2	2.000000E+1	1.277530E-11	1.292790E-11	4.442550E-9	-2.534230E-9
1.500000E+2	2.000000E+1	1.278270E-11	1.292840E-11	4.001670E-9	-2.937130E-9
1.600000E+2	2.000000E+1	1.278780E-11	1.292920E-11	3.728120E-9	-3.206650E-9
1.700000E+2	2.000000E+1	1.278930E-11	1.293010E-11	3.529110E-9	-3.402040E-9
1.800000E+2	2.000000E+1	1.279260E-11	1.293140E-11	3.398220E-9	-3.558850E-9
1.900000E+2	2.000000E+1	1.279350E-11	1.293300E-11	3.298170E-9	-3.623440E-9
2.000000E+2	2.000000E+1	1.279310E-11	1.293450E-11	3.228810E-9	-3.677990E-9
2.100000E+2	2.000000E+1	1.279300E-11	1.293630E-11	3.192760E-9	-3.725500E-9
2.200000E+2	2.000000E+1	1.279810E-11	1.293780E-11	3.130550E-9	-3.714880E-9
2.300000E+2	2.000000E+1	1.279910E-11	1.293980E-11	3.123800E-9	-3.700130E-9
2.400000E+2	2.000000E+1	1.279800E-11	1.294140E-11	3.107550E-9	-3.668060E-9
2.500000E+2	2.000000E+1	1.280140E-11	1.294260E-11	3.110710E-9	-3.622730E-9
2.600000E+2	2.000000E+1	1.280140E-11	1.294440E-11	3.084790E-9	-3.558270E-9
2.700000E+2	2.000000E+1	1.280170E-11	1.294550E-11	3.100910E-9	-3.492940E-9
2.800000E+2	2.000000E+1	1.280440E-11	1.294680E-11	3.096910E-9	-3.418860E-9
2.900000E+2	2.000000E+1	1.280500E-11	1.294860E-11	3.110030E-9	-3.344680E-9
3.000000E+2	2.000000E+1	1.280370E-11	1.294920E-11	3.127080E-9	-3.255480E-9
3.100000E+2	2.000000E+1	1.280370E-11	1.295000E-11	3.125700E-9	-3.182650E-9
3.200000E+2	2.000000E+1	1.280620E-11	1.295110E-11	3.154420E-9	-3.084240E-9
3.300000E+2	2.000000E+1	1.281090E-11	1.295180E-11	3.151050E-9	-2.976150E-9
3.400000E+2	2.000000E+1	1.280900E-11	1.295220E-11	3.164590E-9	-2.902610E-9
3.500000E+2	2.000000E+1	1.281100E-11	1.295270E-11	3.178460E-9	-2.826700E-9
3.600000E+2	2.000000E+1	1.281310E-11	1.295330E-11	3.203650E-9	-2.735130E-9
3.700000E+2	2.000000E+1	1.281300E-11	1.295350E-11	3.198180E-9	-2.697560E-9
3.800000E+2	2.000000E+1	1.281480E-11	1.295370E-11	3.208400E-9	-2.597720E-9
3.900000E+2	2.000000E+1	1.281770E-11	1.295360E-11	3.218330E-9	-2.528850E-9
4.000000E+2	2.000000E+1	1.281720E-11	1.295390E-11	3.244880E-9	-2.501460E-9
4.100000E+2	2.000000E+1	1.281700E-11	1.295370E-11	3.251830E-9	-2.415260E-9
4.200000E+2	2.000000E+1	1.282050E-11	1.295390E-11	3.263830E-9	-2.379690E-9
4.300000E+2	2.000000E+1	1.282180E-11	1.295390E-11	3.264190E-9	-2.323890E-9
4.400000E+2	2.000000E+1	1.282300E-11	1.295360E-11	3.276400E-9	-2.226050E-9
4.500000E+2	2.000000E+1	1.282370E-11	1.295380E-11	3.298380E-9	-2.234590E-9
4.600000E+2	2.000000E+1	1.282490E-11	1.295340E-11	3.301200E-9	-2.180880E-9
4.700000E+2	2.000000E+1	1.282970E-11	1.295330E-11	3.307620E-9	-2.132870E-9
4.800000E+2	2.000000E+1	1.282930E-11	1.295310E-11	3.327120E-9	-2.106700E-9
4.900000E+2	2.000000E+1	1.282930E-11	1.295310E-11	3.329400E-9	-2.063700E-9
5.000000E+2	2.000000E+1	1.283080E-11	1.295280E-11	3.330500E-9	-2.041350E-9
5.100000E+2	2.000000E+1	1.283070E-11	1.295290E-11	3.341090E-9	-1.996750E-9
5.200000E+2	2.000000E+1	1.283450E-11	1.295260E-11	3.365630E-9	-1.973060E-9
5.300000E+2	2.000000E+1	1.283380E-11	1.295260E-11	3.356480E-9	-1.944460E-9
5.400000E+2	2.000000E+1	1.283730E-11	1.295250E-11	3.376980E-9	-1.941020E-9
5.500000E+2	2.000000E+1	1.283790E-11	1.295230E-11	3.375600E-9	-1.904510E-9
5.600000E+2	2.000000E+1	1.283850E-11	1.295210E-11	3.395570E-9	-1.888970E-9
5.700000E+2	2.000000E+1	1.283870E-11	1.295190E-11	3.392930E-9	-1.878580E-9
5.800000E+2	2.000000E+1	1.284040E-11	1.295190E-11	3.420160E-9	-1.876160E-9
5.900000E+2	2.000000E+1	1.284170E-11	1.295170E-11	3.424080E-9	-1.872930E-9
6.000000E+2	2.000000E+1	1.284120E-11	1.295180E-11	3.465680E-9	-1.844730E-9
6.100000E+2	2.000000E+1	1.284390E-11	1.295170E-11	3.442960E-9	-1.806530E-9
6.200000E+2	2.000000E+1	1.284160E-11	1.295180E-11	3.457700E-9	-1.796240E-9
6.300000E+2	2.000000E+1	1.284440E-11	1.295130E-11	3.459800E-9	-1.784940E-9
6.400000E+2	2.000000E+1	1.284430E-11	1.295120E-11	3.477510E-9	-1.784760E-9
6.500000E+2	2.000000E+1	1.284520E-11	1.295110E-11	3.490380E-9	-1.772260E-9
6.600000E+2	2.000000E+1	1.284710E-11	1.295080E-11	3.504030E-9	-1.730260E-9
6.700000E+2	2.000000E+1	1.284560E-11	1.295080E-11	3.517150E-9	-1.717490E-9
6.800000E+2	2.000000E+1	1.284620E-11	1.295080E-11	3.525320E-9	-1.722290E-9
6.900000E+2	2.000000E+1	1.284730E-11	1.295070E-11	3.534480E-9	-1.716720E-9
7.000000E+2	2.000000E+1	1.284750E-11	1.295070E-11	3.537310E-9	-1.726810E-9
END