CV MEASUREMENT
:start
2013-07-24 11:33:33
:stop
2013-07-24 11:49:37
:device
w1-pm1125-2
:tester
Pavel
:atmosphere
Nitrogen
:environment
Probe Station
:Instruments
VI Kei6517A,CV AgE4980A,GI NM,T ATTcontroller
:Comment
Humidity ~2.5%
Annealing time [min]:
0@0
:temperature [C]
19.992857
:start,stop voltage [V] & number of points
0.000000,26.000000,14
:Voltage increment and increment speed
2.000000,0.300000
:polarity and ramp mode
positive,0
:List of frequencies
105 Hz,155 Hz,205 Hz,305 Hz,505 Hz,705 Hz,1 kHz,1.5 kHz,2 kHz,3 kHz,5 kHz,7 kHz,10 kHz,15 kHz,20 kHz,30 kHz,50 kHz,70 kHz,100 kHz,150 kHz,200 kHz,300 kHz,500 kHz,700 kHz,1 MHz,1.5 MHz,2 MHz,
:AC level
0.500000
:Average
10
:Delay
1.200000
:legend
bias [V],T[C],C[F],G[S]
BEGIN
0.000000E+0	2.000000E+1	5.401320E-9	3.572170E-9	2.355740E-9	1.155770E-9	5.222420E-10	3.688900E-10	3.119110E-10	3.117370E-10	2.732860E-10	2.744700E-10	2.777030E-10	2.726380E-10	2.682710E-10	2.661640E-10	2.679950E-10	2.667820E-10	2.663230E-10	2.664250E-10	2.663360E-10	2.664750E-10	2.665410E-10	2.647220E-10	2.530790E-10	2.403090E-10	2.196230E-10	2.196230E-10	1.493610E-10	5.248970E-5	7.022010E-5	7.721170E-5	8.117510E-5	8.362550E-5	8.429500E-5	8.385350E-5	8.380220E-5	8.391060E-5	8.213820E-5	8.187480E-5	8.149950E-5	8.156970E-5	8.091580E-5	7.901100E-5	7.710340E-5	7.218680E-5	6.835940E-5	6.586760E-5	6.474140E-5	6.594620E-5	8.439400E-5	1.935820E-4	3.549240E-4	6.590360E-4	6.590290E-4	1.846610E-3
2.000000E+0	2.000000E+1	1.796640E-10	1.800120E-10	1.798310E-10	1.797140E-10	1.796320E-10	1.795930E-10	1.795640E-10	1.795640E-10	1.795580E-10	1.795540E-10	1.795510E-10	1.795530E-10	1.795400E-10	1.795360E-10	1.795280E-10	1.795020E-10	1.794620E-10	1.794050E-10	1.792980E-10	1.791050E-10	1.788410E-10	1.781350E-10	1.759890E-10	1.729440E-10	1.668920E-10	1.668910E-10	1.389470E-10	6.363170E-10	1.662890E-9	1.900170E-9	1.988850E-9	2.088300E-9	2.184780E-9	2.082020E-9	2.074520E-9	3.216830E-9	5.065190E-9	1.099190E-8	1.988180E-8	3.829450E-8	8.403240E-8	1.480040E-7	3.287660E-7	9.083660E-7	1.772450E-6	3.605070E-6	8.085640E-6	1.434120E-5	3.211570E-5	8.822620E-5	1.703130E-4	3.368350E-4	3.368410E-4	1.156340E-3
4.000000E+0	2.000000E+1	1.575350E-10	1.578420E-10	1.576470E-10	1.575460E-10	1.574800E-10	1.574470E-10	1.574320E-10	1.574300E-10	1.574290E-10	1.574200E-10	1.574200E-10	1.574150E-10	1.574150E-10	1.574090E-10	1.574060E-10	1.573960E-10	1.573720E-10	1.573380E-10	1.572940E-10	1.571710E-10	1.570250E-10	1.566160E-10	1.553700E-10	1.535120E-10	1.497690E-10	1.497690E-10	1.309600E-10	5.484320E-10	1.438430E-9	1.660160E-9	1.731860E-9	1.819590E-9	1.887260E-9	1.767580E-9	1.759940E-9	2.625440E-9	4.055550E-9	8.548650E-9	1.519350E-8	2.971550E-8	6.484800E-8	1.138420E-7	2.537660E-7	6.964420E-7	1.358890E-6	2.762450E-6	6.212780E-6	1.102830E-5	2.474670E-5	6.830500E-5	1.326270E-4	2.653340E-4	2.653410E-4	9.551590E-4
6.000000E+0	2.000000E+1	1.459770E-10	1.462480E-10	1.460580E-10	1.459900E-10	1.459260E-10	1.458940E-10	1.458780E-10	1.458800E-10	1.458770E-10	1.458700E-10	1.458710E-10	1.458700E-10	1.458700E-10	1.458630E-10	1.458600E-10	1.458520E-10	1.458330E-10	1.458120E-10	1.457760E-10	1.456840E-10	1.455850E-10	1.452870E-10	1.443950E-10	1.430350E-10	1.402670E-10	1.402640E-10	1.257750E-10	5.218360E-10	1.321310E-9	1.537320E-9	1.603150E-9	1.681430E-9	1.738690E-9	1.613820E-9	1.621940E-9	2.363060E-9	3.578570E-9	7.441530E-9	1.312660E-8	2.550980E-8	5.587140E-8	9.779420E-8	2.181760E-7	5.975860E-7	1.165610E-6	2.368820E-6	5.328030E-6	9.459540E-6	2.124080E-5	5.874040E-5	1.143490E-4	2.299420E-4	2.299650E-4	8.481150E-4
8.000000E+0	2.000000E+1	1.384280E-10	1.386650E-10	1.384850E-10	1.384210E-10	1.383540E-10	1.383290E-10	1.383160E-10	1.383150E-10	1.383140E-10	1.383080E-10	1.383090E-10	1.383090E-10	1.383060E-10	1.383010E-10	1.382980E-10	1.382890E-10	1.382770E-10	1.382580E-10	1.382340E-10	1.381530E-10	1.380730E-10	1.378430E-10	1.371450E-10	1.360640E-10	1.338480E-10	1.338480E-10	1.219480E-10	4.850520E-10	1.233010E-9	1.464410E-9	1.514250E-9	1.599000E-9	1.656660E-9	1.530120E-9	1.534260E-9	2.179640E-9	3.301750E-9	6.794540E-9	1.189910E-8	2.297330E-8	5.022410E-8	8.790770E-8	1.962190E-7	5.372170E-7	1.047270E-6	2.128030E-6	4.787020E-6	8.497950E-6	1.908790E-5	5.285390E-5	1.030640E-4	2.078990E-4	2.079000E-4	7.783570E-4
1.000000E+1	1.990000E+1	1.329110E-10	1.331380E-10	1.329690E-10	1.328970E-10	1.328400E-10	1.328150E-10	1.328000E-10	1.328000E-10	1.327990E-10	1.327930E-10	1.327940E-10	1.327920E-10	1.327890E-10	1.327850E-10	1.327830E-10	1.327750E-10	1.327650E-10	1.327470E-10	1.327260E-10	1.326580E-10	1.325890E-10	1.324030E-10	1.318260E-10	1.309280E-10	1.290800E-10	1.290810E-10	1.189340E-10	4.595200E-10	1.189010E-9	1.392170E-9	1.458310E-9	1.529060E-9	1.579050E-9	1.465280E-9	1.453800E-9	2.056820E-9	3.096740E-9	6.332600E-9	1.101380E-8	2.132060E-8	4.643040E-8	8.131670E-8	1.810980E-7	4.953300E-7	9.654790E-7	1.961260E-6	4.411560E-6	7.833060E-6	1.759760E-5	4.876230E-5	9.516920E-5	1.923690E-4	1.923670E-4	7.278970E-4
1.200000E+1	2.000000E+1	1.285920E-10	1.288090E-10	1.286570E-10	1.285910E-10	1.285360E-10	1.285060E-10	1.284960E-10	1.284960E-10	1.284940E-10	1.284890E-10	1.284900E-10	1.284880E-10	1.284870E-10	1.284810E-10	1.284790E-10	1.284730E-10	1.284610E-10	1.284490E-10	1.284260E-10	1.283690E-10	1.283110E-10	1.281520E-10	1.276620E-10	1.268940E-10	1.253100E-10	1.253110E-10	1.164440E-10	4.532580E-10	1.143760E-9	1.362130E-9	1.419950E-9	1.476630E-9	1.532680E-9	1.400590E-9	1.412870E-9	1.969440E-9	2.940000E-9	5.988190E-9	1.036200E-8	2.002750E-8	4.358030E-8	7.642630E-8	1.697090E-7	4.640640E-7	9.040670E-7	1.836490E-6	4.130200E-6	7.333610E-6	1.647710E-5	4.567860E-5	8.921350E-5	1.806230E-4	1.806280E-4	6.890630E-4
1.400000E+1	2.000000E+1	1.250890E-10	1.253150E-10	1.251580E-10	1.250900E-10	1.250360E-10	1.250070E-10	1.249980E-10	1.249970E-10	1.249970E-10	1.249900E-10	1.249910E-10	1.249890E-10	1.249890E-10	1.249840E-10	1.249820E-10	1.249740E-10	1.249620E-10	1.249530E-10	1.249330E-10	1.248800E-10	1.248300E-10	1.246910E-10	1.242650E-10	1.235950E-10	1.222060E-10	1.222070E-10	1.143140E-10	4.404490E-10	1.107750E-9	1.320160E-9	1.367620E-9	1.436780E-9	1.479110E-9	1.372970E-9	1.373130E-9	1.918590E-9	2.818270E-9	5.709320E-9	9.876130E-9	1.898890E-8	4.140320E-8	7.236290E-8	1.609240E-7	4.397440E-7	8.557650E-7	1.738280E-6	3.910030E-6	6.942440E-6	1.559890E-5	4.326830E-5	8.455760E-5	1.714050E-4	1.713940E-4	6.578850E-4
1.600000E+1	2.000000E+1	1.221590E-10	1.223870E-10	1.222180E-10	1.221610E-10	1.221070E-10	1.220810E-10	1.220690E-10	1.220700E-10	1.220680E-10	1.220630E-10	1.220640E-10	1.220620E-10	1.220610E-10	1.220550E-10	1.220530E-10	1.220480E-10	1.220350E-10	1.220290E-10	1.220090E-10	1.219610E-10	1.219160E-10	1.217930E-10	1.214200E-10	1.208260E-10	1.195950E-10	1.195950E-10	1.124900E-10	4.361340E-10	1.080630E-9	1.285500E-9	1.345390E-9	1.406260E-9	1.448260E-9	1.339570E-9	1.340620E-9	1.866080E-9	2.727970E-9	5.473310E-9	9.470140E-9	1.808940E-8	3.949220E-8	6.921500E-8	1.535570E-7	4.197060E-7	8.168920E-7	1.658650E-6	3.730580E-6	6.623730E-6	1.488250E-5	4.128400E-5	8.071020E-5	1.637850E-4	1.637920E-4	6.320110E-4
1.800000E+1	2.000000E+1	1.196410E-10	1.198600E-10	1.197040E-10	1.196410E-10	1.195890E-10	1.195640E-10	1.195510E-10	1.195520E-10	1.195500E-10	1.195460E-10	1.195470E-10	1.195450E-10	1.195450E-10	1.195390E-10	1.195360E-10	1.195300E-10	1.195190E-10	1.195140E-10	1.194940E-10	1.194510E-10	1.194120E-10	1.193000E-10	1.189660E-10	1.184320E-10	1.173260E-10	1.173250E-10	1.108480E-10	4.312530E-10	1.055270E-9	1.263280E-9	1.313800E-9	1.383310E-9	1.422120E-9	1.299400E-9	1.296410E-9	1.815570E-9	2.661240E-9	5.309640E-9	9.118530E-9	1.744850E-8	3.799360E-8	6.642780E-8	1.474260E-7	4.030330E-7	7.842200E-7	1.591690E-6	3.580470E-6	6.356580E-6	1.428460E-5	3.964610E-5	7.754690E-5	1.574900E-4	1.574950E-4	6.101320E-4
2.000000E+1	2.000000E+1	1.174470E-10	1.176460E-10	1.174980E-10	1.174440E-10	1.173890E-10	1.173650E-10	1.173550E-10	1.173540E-10	1.173520E-10	1.173480E-10	1.173490E-10	1.173470E-10	1.173470E-10	1.173420E-10	1.173400E-10	1.173330E-10	1.173220E-10	1.173160E-10	1.172970E-10	1.172580E-10	1.172230E-10	1.171230E-10	1.168230E-10	1.163390E-10	1.153380E-10	1.153390E-10	1.094040E-10	4.137370E-10	1.041460E-9	1.235440E-9	1.299720E-9	1.352390E-9	1.391940E-9	1.278790E-9	1.283950E-9	1.756260E-9	2.580770E-9	5.134560E-9	8.823960E-9	1.690340E-8	3.683190E-8	6.419530E-8	1.424280E-7	3.888490E-7	7.564630E-7	1.535050E-6	3.452810E-6	6.130060E-6	1.377550E-5	3.823540E-5	7.481570E-5	1.520200E-4	1.520190E-4	5.911580E-4
2.200000E+1	2.000000E+1	1.155010E-10	1.157160E-10	1.155560E-10	1.154960E-10	1.154430E-10	1.154210E-10	1.154080E-10	1.154080E-10	1.154060E-10	1.154030E-10	1.154030E-10	1.154000E-10	1.154000E-10	1.153960E-10	1.153930E-10	1.153860E-10	1.153770E-10	1.153700E-10	1.153530E-10	1.153180E-10	1.152850E-10	1.151950E-10	1.149210E-10	1.144790E-10	1.135660E-10	1.135680E-10	1.080900E-10	4.025290E-10	1.014160E-9	1.220440E-9	1.274810E-9	1.337720E-9	1.382340E-9	1.258590E-9	1.264800E-9	1.739660E-9	2.529420E-9	4.997020E-9	8.558010E-9	1.639280E-8	3.553800E-8	6.215630E-8	1.381530E-7	3.766220E-7	7.322340E-7	1.485620E-6	3.341130E-6	5.931700E-6	1.333030E-5	3.701400E-5	7.245010E-5	1.473070E-4	1.472900E-4	5.745820E-4
2.400000E+1	2.000000E+1	1.137680E-10	1.139580E-10	1.138170E-10	1.137500E-10	1.137000E-10	1.136770E-10	1.136660E-10	1.136660E-10	1.136640E-10	1.136610E-10	1.136610E-10	1.136580E-10	1.136590E-10	1.136550E-10	1.136500E-10	1.136440E-10	1.136350E-10	1.136270E-10	1.136110E-10	1.135790E-10	1.135470E-10	1.134670E-10	1.132170E-10	1.128130E-10	1.119740E-10	1.119740E-10	1.068840E-10	4.002020E-10	1.001760E-9	1.196000E-9	1.253270E-9	1.314850E-9	1.347340E-9	1.241150E-9	1.235580E-9	1.693010E-9	2.476100E-9	4.882040E-9	8.338750E-9	1.593870E-8	3.457540E-8	6.046580E-8	1.344170E-7	3.656270E-7	7.112240E-7	1.442710E-6	3.244560E-6	5.760120E-6	1.294460E-5	3.594030E-5	7.036110E-5	1.431380E-4	1.431380E-4	5.598780E-4
2.600000E+1	2.000000E+1	1.122060E-10	1.123820E-10	1.122300E-10	1.121740E-10	1.121210E-10	1.120980E-10	1.120870E-10	1.120860E-10	1.120850E-10	1.120820E-10	1.120800E-10	1.120780E-10	1.120780E-10	1.120760E-10	1.120710E-10	1.120670E-10	1.120550E-10	1.120470E-10	1.120310E-10	1.120020E-10	1.119720E-10	1.118990E-10	1.116710E-10	1.112960E-10	1.105220E-10	1.105230E-10	1.057770E-10	3.946530E-10	9.832940E-10	1.192730E-9	1.236500E-9	1.306360E-9	1.335370E-9	1.224330E-9	1.221850E-9	1.679190E-9	2.422690E-9	4.783010E-9	8.151330E-9	1.554580E-8	3.366000E-8	5.899170E-8	1.305340E-7	3.560770E-7	6.923980E-7	1.404250E-6	3.158330E-6	5.606700E-6	1.259960E-5	3.498710E-5	6.850990E-5	1.394350E-4	1.394320E-4	5.466160E-4
END